%Time (s)	Wheel Position (deg)	Slide position (mm)	Wheel Speed (deg/s)	Slide Speed (mm/s)	Actual sample time (ms)	%2/8/20183:10 PM
0.000	6877.280	125.265	1035.917	-1409.766	19.000
0.020	6898.520	95.799	1153.667	-1539.066	22.000
0.040	6923.060	64.275	1179.333	-1596.007	20.000
0.060	6945.580	33.305	1181.333	-1464.915	20.000
0.080	6970.720	8.353	1276.583	-899.537	19.000
0.100	6996.280	0.000	1306.167	124.566	20.000
0.120	7022.280	13.727	1217.500	1222.757	20.000
0.140	7044.580	46.402	1060.750	1883.463	21.000
0.160	7064.920	86.110	951.083	2060.619	20.000
0.180	7082.820	127.031	860.083	1995.745	20.000
0.200	7099.940	164.205	873.500	1684.106	19.000
0.220	7118.320	192.181	987.750	1002.607	20.000
0.240	7139.280	203.129	1062.167	106.140	19.000
0.260	7160.480	197.801	1072.750	-528.846	21.000
0.280	7182.300	183.690	1123.583	-873.690	20.000
0.300	7205.020	163.590	1090.583	-1124.614	20.000
0.320	7225.940	139.130	1062.500	-1316.229	20.000
0.340	7247.860	111.230	1103.333	-1472.081	20.000
0.360	7270.020	80.705	1121.833	-1562.035	20.000
0.380	7292.860	49.489	1161.000	-1565.042	20.000
0.400	7316.700	20.084	1246.333	-1266.390	20.000
0.420	7342.660	1.873	1337.417	-451.944	21.000
0.440	7369.300	3.716	1259.667	656.099	19.000
0.460	7392.680	27.009	1137.583	1569.712	20.000
0.480	7414.540	63.707	962.833	2013.915	20.000
0.500	7431.560	105.073	841.750	2073.927	19.000
0.520	7449.260	144.888	924.167	1889.413	22.000
0.540	7468.420	178.715	954.417	1413.413	19.000
0.560	7487.620	199.383	1026.750	573.887	19.000
0.580	7509.380	201.809	1076.000	-231.794	20.000
0.600	7530.520	191.905	1097.417	-713.168	21.000
0.620	7553.380	174.523	1162.000	-1005.870	21.000
0.640	7576.240	152.259	1063.583	-1219.558	19.000
0.660	7596.260	126.048	1034.000	-1393.707	19.000
0.680	7618.300	96.797	1153.083	-1532.541	21.000
0.700	7641.700	65.319	1104.167	-1598.311	19.000
0.720	7663.020	34.241	1172.333	-1467.091	21.000
0.740	7689.020	9.198	1336.750	-924.233	20.000
0.760	7715.500	-0.077	1302.000	71.912	20.000
0.780	7740.720	12.591	1229.833	1160.634	21.000
0.800	7764.140	44.130	1049.333	1867.340	19.000
0.820	7782.980	84.298	927.667	2082.372	21.000
0.840	7801.740	125.418	892.000	2012.827	19.000
0.860	7818.880	163.130	866.417	1716.607	20.000
0.880	7837.260	191.705	1015.333	1013.739	21.000
0.900	7859.200	202.607	1096.167	121.751	19.000
0.920	7880.620	197.939	1085.333	-510.612	20.000
0.940	7902.680	183.782	1102.667	-877.785	20.000
0.960	7924.620	163.652	1096.250	-1130.756	20.000
0.980	7946.560	138.977	1097.167	-1326.850	20.000
1.000	7968.560	110.877	1109.500	-1484.685	21.000
1.020	7990.880	80.029	1101.417	-1583.659	19.000
1.040	8012.900	48.398	1140.833	-1571.184	20.000
1.060	8036.940	19.224	1260.167	-1247.005	20.000
1.080	8063.240	1.520	1384.250	-415.988	21.000
1.100	8091.160	4.284	1296.750	709.841	19.000
1.120	8114.440	28.714	1097.333	1625.885	20.000
1.140	8135.320	66.410	957.500	2048.143	20.000
1.160	8153.160	108.313	875.667	2133.363	20.000
1.180	8171.120	149.525	938.000	1885.446	21.000
1.200	8190.680	181.632	973.333	1309.064	19.000
1.220	8210.360	200.457	1082.083	496.409	21.000
1.240	8233.480	201.594	1093.333	-304.474	19.000
1.260	8253.820	190.078	1046.583	-780.921	20.000
1.280	8275.960	171.667	1145.333	-1052.574	21.000
1.300	8299.020	148.466	1101.167	-1266.902	19.000
1.320	8320.200	121.319	1108.917	-1437.661	21.000
1.340	8343.460	91.346	1129.333	-1554.101	19.000
1.360	8365.340	59.746	1127.250	-1601.445	20.000
1.380	8389.100	28.867	1248.083	-1419.299	20.000
1.400	8414.780	5.835	1258.000	-766.462	18.000
1.420	8439.440	0.691	1298.917	314.902	22.000
1.440	8466.140	18.288	1240.000	1373.106	20.000
1.460	8488.240	52.913	1022.333	1965.931	20.000
1.480	8507.580	94.064	921.250	2101.053	20.000
1.500	8525.600	135.076	896.583	1979.110	20.000
1.520	8543.920	171.345	948.250	1584.491	21.000
1.540	8563.780	196.173	1045.417	791.222	20.000
1.560	8585.440	202.561	1081.583	-72.680	19.000
1.580	8606.860	194.914	1091.417	-631.915	20.000
1.600	8628.980	178.715	1073.833	-964.156	19.000
1.620	8650.160	157.065	1135.750	-1201.260	23.000
1.640	8674.120	131.161	1141.250	-1359.799	19.000
1.660	8695.400	102.785	1053.583	-1520.385	19.000
1.680	8717.000	70.832	1114.333	-1620.127	20.000
1.700	8740.340	39.324	1233.750	-1522.816	21.000
1.720	8766.200	12.299	1329.250	-1053.790	20.000
1.740	8792.900	0.000	1320.500	-104.797	19.000
1.760	8818.460	9.151	1222.333	1030.437	21.000
1.780	8841.500	39.293	1076.500	1834.455	20.000
1.800	8861.640	79.338	951.000	2103.421	20.000
1.820	8879.980	121.226	897.750	2054.477	20.000
1.840	8898.060	159.798	934.500	1778.474	20.000
1.860	8917.400	189.893	958.583	1079.125	19.000
1.880	8936.720	201.839	1046.083	185.282	20.000
1.900	8959.200	198.569	1126.417	-465.124	20.000
1.920	8981.400	184.734	1139.417	-877.273	21.000
1.940	9004.500	164.681	1110.000	-1087.826	19.000
1.960	9025.660	141.280	1038.750	-1323.907	20.000
1.980	9046.880	112.014	1150.250	-1524.223	21.000
2.000	9071.140	81.135	1126.417	-1583.212	18.000
2.020	9092.280	49.335	1175.250	-1583.979	23.000
2.040	9118.520	19.823	1303.750	-1267.606	19.000
2.060	9143.860	1.674	1320.083	-437.613	20.000
2.080	9170.880	4.069	1279.333	695.894	19.000
2.100	9194.340	28.330	1108.917	1622.814	20.000
2.120	9215.320	66.057	962.000	2057.996	20.000
2.140	9233.240	108.098	877.333	2101.629	20.000
2.160	9251.200	148.297	939.333	1898.434	20.000
2.180	9270.820	181.863	983.583	1354.425	20.000
2.200	9290.520	200.550	1014.833	466.595	19.000
2.220	9311.740	201.056	1123.000	-312.407	22.000
2.240	9335.000	189.863	1147.583	-772.924	20.000
2.260	9357.140	171.345	1074.083	-1051.230	19.000
2.280	9378.300	148.358	1071.750	-1256.793	20.000
2.300	9400.360	121.319	1136.333	-1436.829	21.000
2.320	9423.540	91.285	1158.917	-1559.476	20.000
2.340	9446.340	59.592	1093.583	-1600.998	19.000
2.360	9468.000	28.821	1170.750	-1413.797	20.000
2.380	9493.580	5.850	1329.250	-765.439	20.000
2.400	9520.480	0.660	1368.333	306.265	21.000
2.420	9547.160	18.011	1200.667	1362.550	19.000
2.440	9568.240	52.606	990.500	1986.916	20.000
2.460	9587.500	94.402	918.667	2105.660	20.000
2.480	9605.480	134.923	926.083	1961.644	22.000
2.500	9624.600	171.191	919.000	1589.226	18.000
2.520	9642.780	196.127	1019.250	797.108	21.000
2.540	9665.340	202.622	1119.250	-67.497	19.000
2.560	9686.780	195.068	1050.083	-628.269	19.000
2.580	9707.980	178.915	1138.083	-964.604	22.000
2.600	9731.880	157.249	1132.333	-1192.047	19.000
2.620	9753.000	131.576	1069.417	-1377.649	20.000
2.640	9775.180	102.447	1127.250	-1524.927	21.000
2.660	9797.720	71.139	1081.500	-1594.792	18.000
2.680	9819.100	39.738	1173.250	-1522.560	21.000
2.700	9844.800	12.652	1287.000	-1067.161	19.000
2.720	9870.240	-0.031	1351.250	-112.730	22.000
2.740	9897.960	9.105	1263.667	1009.133	19.000
2.760	9920.080	38.418	1041.500	1799.331	20.000
2.780	9940.240	78.049	954.250	2087.618	20.000
2.800	9958.520	119.676	889.333	2043.729	20.000
2.820	9976.460	158.139	948.917	1781.545	21.000
2.840	9996.400	188.650	972.167	1139.585	19.000
2.860	10015.540	202.269	1033.500	236.337	20.000
2.880	10037.840	199.214	1123.583	-451.624	20.000
2.900	10059.940	185.932	1101.583	-845.412	20.000
2.920	10081.940	166.339	1099.833	-1105.484	20.000
2.940	10103.960	142.170	1101.667	-1305.033	21.000
2.960	10126.040	114.440	1111.167	-1465.491	20.000
2.980	10148.340	83.945	1099.583	-1574.191	19.000
3.000	10170.300	52.253	1134.583	-1583.276	20.000
3.020	10194.140	22.479	1245.750	-1313.158	20.000
3.040	10220.140	2.702	1375.417	-544.649	21.000
3.060	10248.080	2.702	1310.917	574.271	20.000
3.080	10271.720	24.752	1091.000	1529.150	19.000
3.100	10292.160	61.051	971.583	2008.477	20.000
3.120	10310.940	102.494	902.917	2083.331	20.000
3.140	10328.660	142.600	887.083	1914.812	20.000
3.160	10347.020	177.149	983.667	1456.470	21.000
3.180	10367.900	198.738	1049.250	621.295	19.000
3.200	10388.780	202.039	1076.167	-197.054	21.000
3.220	10410.920	192.611	1112.000	-698.133	20.000
3.240	10432.900	175.429	1068.500	-994.929	19.000
3.260	10453.980	153.410	1101.500	-1212.776	21.000
3.280	10476.820	127.215	1100.250	-1394.731	19.000
3.300	10497.920	97.964	1077.667	-1529.150	20.000
3.320	10520.360	66.594	1151.167	-1595.559	20.000
3.340	10543.660	35.439	1135.750	-1479.438	19.000
3.360	10566.460	9.950	1261.000	-957.182	21.000
3.380	10594.140	-0.123	1425.833	31.989	21.000
3.400	10621.560	11.823	1202.167	1125.126	18.000
3.420	10642.260	42.748	1019.333	1850.194	22.000
3.440	10662.900	82.885	946.667	2092.736	19.000
3.460	10680.220	124.328	859.000	2024.087	20.000
3.480	10698.040	162.208	919.333	1742.454	20.000
3.500	10717.220	191.552	1005.667	1034.788	20.000
3.520	10738.260	202.484	1094.167	129.301	20.000
3.540	10760.620	198.185	1119.333	-492.698	20.000
3.560	10782.640	184.243	1066.083	-882.647	20.000
3.580	10803.620	163.867	1097.000	-1122.694	21.000
3.600	10826.400	139.775	1101.500	-1303.242	19.000
3.620	10847.420	111.891	1038.917	-1476.048	19.000
3.640	10868.680	81.212	1132.500	-1578.157	21.000
3.660	10892.520	49.611	1160.500	-1572.399	20.000
3.680	10915.400	20.299	1251.500	-1264.855	21.000
3.700	10942.660	1.965	1379.250	-462.181	20.000
3.720	10969.440	3.608	1295.000	652.900	20.000
3.740	10993.820	27.009	1103.917	1579.501	19.000
3.760	11013.880	63.953	977.083	2029.717	21.000
3.780	11033.240	105.641	905.083	2084.291	20.000
3.800	11050.300	145.533	848.000	1894.083	19.000
3.820	11067.960	179.421	940.750	1402.152	20.000
3.840	11088.120	199.613	1057.000	552.902	20.000
3.860	11110.020	201.763	1140.250	-245.102	21.000
3.880	11133.100	191.567	1104.000	-728.331	19.000
3.900	11154.140	173.878	1067.000	-1020.009	20.000
3.920	11176.120	151.337	1102.083	-1232.354	20.000
3.940	11198.100	124.727	1102.083	-1451.288	21.000
3.960	11220.280	94.125	1117.667	-1514.051	20.000
3.980	11242.920	64.490	1153.000	-1558.196	20.000
4.000	11266.440	32.813	1191.417	-1484.365	19.000
4.020	11290.660	8.199	1246.500	-882.903	19.000
4.040	11316.260	0.046	1312.583	142.800	21.000
4.060	11342.320	14.249	1221.083	1233.121	20.000
4.080	11364.700	46.940	1067.917	1903.488	21.000
4.100	11385.120	87.400	930.167	2085.187	19.000
4.120	11402.360	128.412	862.333	1997.536	20.000
4.140	11420.360	165.587	931.667	1673.549	21.000
4.160	11439.660	193.026	978.500	948.673	18.000
4.180	11459.920	202.653	1125.250	70.760	23.000
4.200	11484.000	197.264	1143.500	-542.538	19.000
4.220	11505.020	182.508	1030.250	-900.241	19.000
4.240	11526.020	162.070	1106.167	-1144.255	21.000
4.260	11548.820	137.165	1063.250	-1329.985	19.000
4.280	11568.920	109.142	1107.250	-1483.533	21.000
4.300	11593.040	78.279	1127.917	-1574.830	18.000
4.320	11614.040	47.032	1133.083	-1551.542	22.000
4.340	11639.080	18.242	1301.333	-1220.965	20.000
