%Time (s)	Wheel Position (deg)	Slide position (mm)	Wheel Speed (deg/s)	Slide Speed (mm/s)	Actual sample time (ms)	%2/8/20182:55 PM
0.000	7163.920	195.820	508.583	-264.615	20.000
0.020	7174.320	189.509	531.167	-363.142	20.000
0.040	7185.060	181.371	528.167	-450.217	19.000
0.060	7195.580	171.590	558.750	-523.728	21.000
0.080	7207.240	160.519	549.917	-577.022	19.000
0.100	7217.660	148.389	560.083	-658.083	21.000
0.120	7229.720	134.247	587.250	-729.611	19.000
0.140	7241.000	119.353	576.083	-771.581	20.000
0.160	7253.020	103.338	628.833	-827.050	21.000
0.180	7265.800	86.294	598.667	-880.088	19.000
0.200	7277.200	68.268	620.083	-915.596	21.000
0.220	7290.760	50.011	671.167	-895.251	19.000
0.240	7303.880	32.813	680.917	-823.595	20.000
0.260	7318.160	17.520	731.167	-686.489	20.000
0.280	7332.980	6.004	751.083	-444.586	20.000
0.300	7348.080	0.292	753.750	-111.514	20.000
0.320	7362.980	1.689	738.250	242.990	21.000
0.340	7377.260	9.766	657.583	559.428	19.000
0.360	7389.240	23.478	574.167	781.625	20.000
0.380	7400.340	40.337	513.500	892.948	19.000
0.400	7409.820	58.671	455.333	925.705	20.000
0.420	7418.660	77.005	416.083	905.424	20.000
0.440	7426.520	94.647	386.750	849.634	22.000
0.460	7434.080	110.847	348.417	770.877	20.000
0.480	7440.360	125.495	285.417	696.854	19.000
0.500	7445.760	138.777	275.667	632.747	20.000
0.520	7451.460	150.846	273.583	575.359	19.000
0.540	7456.720	161.794	271.167	517.266	21.000
0.560	7462.380	171.544	284.583	460.517	20.000
0.580	7468.040	180.220	280.667	405.816	20.000
0.600	7473.720	187.728	296.833	342.541	20.000
0.620	7480.080	193.870	344.167	272.164	21.000
0.640	7487.460	198.538	382.667	190.272	20.000
0.660	7495.360	201.379	417.500	92.769	20.000
0.680	7504.120	202.131	446.667	-24.696	19.000
0.700	7513.160	200.350	459.250	-149.582	20.000
0.720	7522.660	196.235	511.833	-258.409	21.000
0.740	7533.460	190.108	526.083	-351.370	19.000
0.760	7543.680	182.216	540.667	-441.643	21.000
0.780	7555.060	172.527	550.583	-517.714	19.000
0.800	7565.700	161.579	560.583	-581.628	21.000
0.820	7577.480	149.264	574.000	-647.398	20.000
0.840	7588.500	135.706	547.250	-709.266	19.000
0.860	7599.700	120.919	592.083	-767.742	21.000
0.880	7612.120	105.042	622.500	-817.773	20.000
0.900	7624.340	88.214	597.667	-870.363	19.000
0.920	7636.220	70.325	613.000	-912.013	20.000
0.940	7649.060	52.068	665.250	-898.002	21.000
0.960	7662.760	34.763	702.250	-831.144	20.000
0.980	7677.000	19.240	706.583	-705.427	19.000
1.000	7691.200	7.171	755.667	-480.159	20.000
1.020	7707.000	0.630	761.333	-157.259	20.000
1.040	7721.400	1.121	723.583	203.324	20.000
1.060	7735.880	8.583	687.833	536.779	21.000
1.080	7748.580	22.003	582.583	775.035	19.000
1.100	7759.360	38.863	517.583	897.874	20.000
1.120	7769.420	57.350	475.500	935.237	20.000
1.140	7778.380	75.868	430.417	911.118	21.000
1.160	7786.620	93.588	384.083	859.807	20.000
1.180	7793.660	110.094	316.083	781.497	19.000
1.200	7799.480	124.804	289.333	695.702	20.000
1.220	7805.400	138.040	291.833	633.387	20.000
1.240	7811.100	150.186	278.833	577.726	20.000
1.260	7816.580	161.134	271.583	516.690	20.000
1.280	7822.000	170.899	267.583	465.635	20.000
1.300	7827.420	179.744	290.500	412.149	21.000
1.320	7833.600	187.314	305.333	345.548	19.000
1.340	7839.660	193.532	322.000	275.811	20.000
1.360	7846.640	198.277	370.417	196.094	20.000
1.380	7854.460	201.256	413.750	95.968	20.000
1.400	7863.100	202.039	437.250	-15.419	20.000
1.420	7872.040	200.596	482.250	-134.227	21.000
1.440	7882.340	196.695	519.167	-244.974	20.000
1.460	7892.640	190.722	525.000	-381.440	20.000
1.480	7903.300	181.847	525.750	-436.141	19.000
1.500	7913.720	173.356	537.583	-478.047	20.000
1.520	7924.800	162.439	545.500	-581.564	20.000
1.540	7935.620	150.186	569.583	-665.184	21.000
1.560	7947.580	136.059	594.583	-706.642	20.000
1.580	7959.260	121.963	588.750	-740.487	20.000
1.600	7971.220	106.255	604.833	-814.766	20.000
1.620	7983.440	89.473	617.667	-866.653	20.000
1.640	7995.860	71.676	612.333	-912.141	19.000
1.660	8008.140	53.327	649.833	-900.433	21.000
1.680	8021.860	36.007	682.000	-837.350	19.000
1.700	8035.480	20.222	726.500	-720.270	20.000
1.720	8050.900	7.800	778.917	-510.036	20.000
1.740	8066.100	0.537	717.833	-178.180	19.000
1.760	8079.880	0.937	725.083	195.006	21.000
1.780	8095.040	8.077	731.083	523.152	21.000
1.800	8108.400	21.313	587.750	766.398	19.000
1.820	8118.800	37.988	504.917	887.638	20.000
1.840	8128.900	56.291	479.167	931.783	20.000
1.860	8137.860	74.870	424.417	917.963	20.000
1.880	8145.880	92.743	368.750	864.925	20.000
1.900	8152.780	109.296	348.583	784.696	21.000
1.920	8159.760	124.113	310.583	702.548	19.000
1.940	8165.240	137.503	275.250	640.681	20.000
1.960	8171.020	149.786	292.417	585.851	21.000
1.980	8176.800	160.919	273.250	526.223	19.000
2.000	8182.060	170.838	278.167	466.915	21.000
2.020	8187.980	179.621	291.083	414.453	20.000
2.040	8193.700	187.344	299.667	348.171	19.000
2.060	8200.060	193.502	325.000	275.683	20.000
2.080	8206.780	198.323	363.583	198.461	20.000
2.100	8214.620	201.287	402.167	93.025	19.000
2.120	8222.920	201.993	452.333	-17.722	21.000
2.140	8232.660	200.534	496.583	-136.210	20.000
2.160	8242.540	196.557	489.000	-254.123	20.000
2.180	8252.400	190.492	524.167	-350.922	21.000
2.200	8263.480	182.646	555.750	-424.625	20.000
2.220	8274.380	173.464	534.583	-511.444	19.000
2.240	8285.000	162.239	544.833	-589.946	20.000
2.260	8296.260	149.986	572.833	-645.351	21.000
2.280	8307.760	136.412	566.000	-707.666	18.000
2.300	8318.980	121.733	576.750	-759.105	21.000
2.320	8330.920	106.056	605.667	-809.968	20.000
2.340	8343.120	89.319	612.000	-866.333	20.000
2.360	8355.520	71.492	649.000	-913.293	21.000
2.380	8368.900	53.143	641.500	-901.009	18.000
2.400	8381.400	35.838	678.833	-827.946	21.000
2.420	8396.200	20.330	753.417	-720.014	20.000
2.440	8411.000	7.693	706.833	-506.454	19.000
2.460	8424.880	0.783	761.083	-172.422	22.000
2.480	8441.200	1.013	771.083	192.383	19.000
2.500	8455.140	8.276	668.500	526.095	21.000
2.520	8468.020	21.466	594.000	763.839	19.000
2.540	8479.000	38.141	537.583	892.372	21.000
2.560	8489.520	56.613	478.417	939.204	19.000
2.580	8498.120	75.285	411.417	920.906	20.000
2.600	8506.160	93.204	383.417	868.124	20.000
2.620	8513.380	109.849	332.917	790.134	20.000
2.640	8519.580	124.773	301.583	706.195	20.000
2.660	8525.580	138.209	295.083	644.967	20.000
2.680	8531.380	150.600	282.917	587.195	20.000
2.700	8536.960	161.671	282.750	522.640	21.000
2.720	8542.720	171.544	286.417	466.467	20.000
2.740	8548.440	180.327	294.500	409.910	20.000
2.760	8554.480	187.897	295.417	346.252	18.000
2.780	8560.360	194.116	310.833	273.828	19.000
2.800	8567.180	198.753	378.583	186.113	21.000
2.820	8575.440	201.455	430.250	81.317	21.000
2.840	8584.260	201.947	459.417	-31.541	20.000
2.860	8593.740	200.150	475.750	-152.589	20.000
2.880	8603.320	195.882	496.917	-267.558	20.000
2.900	8613.740	189.555	548.500	-363.462	21.000
2.920	8625.000	181.402	545.500	-452.136	19.000
2.940	8635.540	171.544	539.000	-528.910	20.000
2.960	8646.800	160.304	587.333	-596.024	21.000
2.980	8658.780	147.714	579.000	-663.393	19.000
3.000	8669.960	133.802	574.833	-725.260	21.000
3.020	8681.860	118.739	587.833	-780.793	19.000
3.040	8693.480	102.570	600.167	-838.246	20.000
3.060	8705.860	85.250	609.500	-891.604	19.000
3.080	8717.920	67.070	626.583	-920.906	20.000
3.100	8731.100	48.721	679.667	-902.417	21.000
3.120	8745.020	31.355	711.583	-828.521	20.000
3.140	8759.540	16.107	742.167	-675.549	20.000
3.160	8774.660	5.006	767.500	-414.964	20.000
3.180	8790.100	0.061	768.500	-63.595	20.000
3.200	8805.300	2.580	764.333	305.241	20.000
3.220	8820.220	11.961	674.250	625.262	21.000
3.240	8832.180	26.948	570.583	843.684	20.000
3.260	8843.320	44.944	525.917	938.884	20.000
3.280	8853.160	63.953	462.917	950.784	20.000
3.300	8861.840	82.670	398.917	921.354	19.000
3.320	8869.240	100.574	356.667	856.224	20.000
3.340	8876.220	116.789	333.833	769.917	21.000
3.360	8882.600	131.407	308.083	692.631	20.000
3.380	8888.600	144.550	293.500	627.757	20.000
3.400	8894.340	156.435	274.083	539.659	19.000
3.420	8899.700	166.354	280.417	495.769	21.000
3.440	8905.620	176.320	296.750	463.204	20.000
3.460	8911.540	184.642	303.000	380.992	20.000
3.480	8917.840	191.567	331.000	307.545	20.000
3.500	8924.740	196.895	345.000	226.804	19.000
3.520	8931.780	200.534	383.583	127.637	20.000
3.540	8940.260	201.947	459.167	22.776	21.000
3.560	8949.940	201.348	492.083	-100.318	20.000
3.580	8959.820	197.939	508.750	-223.029	20.000
3.600	8970.160	192.550	497.500	-322.260	18.000
3.620	8979.920	185.087	530.167	-419.123	22.000
3.640	8991.340	175.874	554.583	-501.207	19.000
3.660	9002.020	165.126	561.083	-568.449	21.000
3.680	9013.860	153.149	589.000	-638.249	20.000
3.700	9025.420	139.714	580.833	-681.371	20.000
3.720	9037.180	125.756	595.750	-754.946	20.000
3.740	9049.180	109.511	592.583	-831.592	20.000
3.760	9060.960	92.713	604.333	-863.390	20.000
3.780	9073.440	74.947	635.250	-913.613	19.000
3.800	9086.220	56.460	625.917	-913.613	19.000
3.820	9098.800	38.756	686.667	-860.319	21.000
3.840	9113.620	22.449	730.917	-751.235	20.000
3.860	9127.840	9.336	735.083	-542.282	20.000
3.880	9143.120	1.397	769.750	-229.875	20.000
3.900	9158.380	0.491	756.250	139.729	20.000
3.920	9173.200	6.864	722.417	490.011	21.000
3.940	9186.980	19.531	637.917	748.740	20.000
3.960	9198.540	36.115	517.167	896.467	18.000
3.980	9208.000	54.801	464.333	956.286	20.000
4.000	9217.240	73.872	427.250	938.948	20.000
4.020	9225.140	92.083	398.417	882.199	22.000
4.040	9233.120	109.019	358.083	805.105	19.000
4.060	9239.420	124.251	304.417	722.061	20.000
4.080	9245.540	137.994	301.750	657.443	21.000
4.100	9251.440	150.585	280.250	598.711	19.000
4.120	9256.860	161.901	280.000	529.678	21.000
4.140	9262.720	171.821	293.583	471.138	20.000
4.160	9268.580	180.757	298.750	415.476	20.000
4.180	9274.740	188.358	316.500	344.140	20.000
4.200	9281.320	194.484	349.917	269.349	20.000
4.220	9288.680	199.045	365.417	180.931	19.000
4.240	9296.120	201.609	419.750	73.831	21.000
4.260	9305.440	201.931	467.750	-43.313	19.000
4.280	9314.660	199.859	480.083	-163.209	20.000
4.300	9324.740	195.436	516.333	-278.242	20.000
4.320	9335.300	188.818	554.333	-378.049	21.000
4.340	9346.640	180.389	536.500	-467.171	19.000
4.360	9356.820	170.208	529.750	-544.713	20.000
4.380	9368.140	158.677	591.500	-608.691	21.000
4.400	9380.160	145.856	579.250	-676.317	19.000
4.420	9391.400	131.652	595.000	-739.719	21.000
4.440	9403.880	116.328	590.083	-792.437	19.000
4.460	9415.100	99.991	604.917	-840.165	21.000
4.480	9428.140	82.747	634.750	-884.630	18.000
4.500	9440.300	64.644	613.750	-932.294	20.000
4.520	9453.140	45.865	692.750	-912.013	21.000
4.540	9467.800	28.683	721.250	-810.224	20.000
4.560	9481.880	13.942	729.917	-640.872	20.000
4.580	9497.120	3.716	769.667	-362.950	20.000
4.600	9512.520	-0.061	785.167	0.128	21.000
4.620	9528.200	3.762	747.083	369.220	20.000
4.640	9542.080	14.280	650.583	668.639	20.000
4.660	9554.300	29.834	579.167	862.046	20.000
4.680	9565.180	48.045	488.250	942.083	19.000
4.700	9574.000	66.993	428.167	942.339	20.000
4.720	9582.500	85.450	404.250	902.992	20.000
4.740	9590.100	102.908	361.333	832.168	20.000
4.760	9596.960	118.647	318.667	753.667	19.000
4.780	9602.960	132.850	296.000	621.743	21.000
4.800	9608.900	144.105	289.750	612.658	19.000
4.820	9614.580	157.356	287.500	601.462	21.000
4.840	9620.380	167.659	279.083	482.078	20.000
4.860	9625.800	176.934	279.500	435.182	20.000
4.880	9631.680	185.026	302.000	374.722	20.000
4.900	9637.900	191.843	323.333	300.635	20.000
4.920	9644.700	197.003	360.583	221.046	20.000
4.940	9652.360	200.596	405.167	126.997	20.000
4.960	9660.820	201.993	430.833	19.449	20.000
4.980	9669.620	201.287	463.500	-103.837	20.000
5.000	9679.380	197.862	501.750	-222.773	20.000
5.020	9689.600	192.473	522.417	-324.243	20.000
5.040	9700.240	184.949	538.833	-419.955	21.000
5.060	9711.120	175.798	549.583	-493.402	20.000
5.080	9722.220	165.249	562.583	-563.011	20.000
5.100	9733.540	153.287	555.000	-632.235	19.000
5.120	9744.580	139.990	583.500	-697.174	21.000
5.140	9756.800	125.464	593.750	-750.020	19.000
5.160	9768.260	109.987	588.000	-805.169	20.000
5.180	9780.480	93.265	618.000	-860.767	21.000
5.200	9792.900	75.638	627.333	-907.151	20.000
5.220	9805.600	57.258	640.667	-908.111	19.000
5.240	9818.660	39.646	679.083	-858.719	20.000
5.260	9832.800	23.278	726.667	-760.320	20.000
5.280	9847.520	9.889	731.917	-556.357	19.000
5.300	9862.080	1.674	738.667	-248.109	20.000
5.320	9877.240	0.338	798.917	121.303	23.000
5.340	9893.280	6.418	708.333	474.145	18.000
5.360	9905.380	18.733	587.333	733.385	20.000
5.380	9917.200	35.040	562.083	878.425	20.000
5.400	9927.640	53.297	476.833	936.901	19.000
5.420	9936.460	72.106	434.000	935.621	22.000
5.440	9945.020	90.409	390.000	888.085	19.000
5.460	9952.080	107.392	347.833	800.691	21.000
5.480	9959.000	122.439	317.917	716.431	19.000
5.500	9964.820	136.182	287.333	658.403	20.000
5.520	9970.640	148.788	285.833	600.438	20.000
5.540	9976.240	160.166	276.333	535.244	21.000
5.560	9981.760	170.208	279.083	471.777	20.000
5.580	9987.460	179.083	291.750	418.291	20.000
5.600	9993.420	186.899	298.250	357.576	19.000
5.620	9999.500	193.302	324.083	282.465	20.000
5.640	10006.500	198.139	372.417	204.667	20.000
5.660	10014.320	201.210	399.750	66.154	19.000
5.680	10022.600	201.041	454.083	-12.860	21.000
5.700	10032.360	200.642	483.583	-101.790	19.000
5.720	10041.840	196.680	494.833	-254.123	21.000
5.740	10052.180	190.753	514.667	-345.100	19.000
5.760	10062.400	182.922	527.083	-436.205	21.000
5.780	10073.320	173.402	551.583	-510.484	19.000
5.800	10084.460	162.562	578.167	-574.079	22.000
5.820	10096.280	150.385	571.417	-652.197	19.000
5.840	10107.320	136.566	565.333	-712.400	20.000
5.860	10119.060	121.963	594.417	-758.977	20.000
5.880	10131.020	106.163	606.417	-817.261	21.000
5.900	10143.220	89.319	597.833	-867.292	19.000
5.920	10155.060	71.554	612.500	-910.350	20.000
5.940	10167.900	53.235	659.083	-897.490	20.000
5.960	10181.460	35.976	714.417	-839.462	21.000
5.980	10196.240	20.099	722.250	-716.239	19.000
6.000	10210.320	7.938	730.167	-496.217	20.000
6.020	10225.440	0.829	741.167	-183.682	20.000
6.040	10239.820	0.906	726.667	182.978	20.000
6.060	10254.360	7.923	693.500	510.292	20.000
6.080	10267.280	20.775	605.000	751.491	20.000
6.100	10278.680	37.312	547.583	886.422	21.000
6.120	10289.180	55.661	486.750	934.598	20.000
6.140	10298.140	74.271	423.667	918.795	20.000
6.160	10306.140	92.144	358.750	863.070	18.000
6.180	10312.680	108.666	328.667	789.239	22.000
6.200	10319.400	123.683	318.000	710.737	20.000
6.220	10325.340	137.165	291.167	645.991	20.000
6.240	10331.100	149.556	275.083	586.427	19.000
6.260	10336.400	160.612	266.250	522.960	21.000
6.280	10341.860	170.515	277.417	467.491	20.000
6.300	10347.520	179.329	289.667	415.988	19.000
6.320	10353.480	187.099	306.250	354.889	21.000
6.340	10359.840	193.440	334.250	279.842	20.000
6.360	10366.920	198.231	377.083	197.438	20.000
6.380	10374.820	201.225	393.333	95.904	19.000
6.400	10382.820	201.993	445.250	-16.251	20.000
6.420	10392.640	200.519	502.667	-138.961	21.000
6.440	10402.620	196.480	494.083	-254.123	19.000
6.460	10412.580	190.477	529.250	-346.443	21.000
6.480	10423.760	182.646	562.167	-439.148	20.000
6.500	10434.740	172.988	520.917	-519.121	18.000
6.520	10444.980	161.963	568.750	-584.507	23.000
6.540	10457.320	149.602	574.667	-654.116	18.000
6.560	10467.900	135.844	567.417	-713.808	21.000
6.580	10480.180	121.027	598.167	-782.969	19.000
6.600	10491.680	104.674	593.667	-822.124	20.000
6.620	10504.000	88.152	604.667	-862.046	20.000
6.640	10515.980	70.156	636.250	-919.499	21.000
6.660	10529.460	51.777	668.333	-904.208	19.000
6.680	10542.660	34.349	685.833	-838.118	20.000
6.700	10557.040	18.702	737.333	-707.538	20.000
6.720	10572.020	6.710	759.083	-470.562	20.000
6.740	10587.380	0.476	791.250	-136.274	21.000
6.760	10603.200	1.474	734.333	231.218	19.000
6.780	10616.580	9.520	650.500	567.553	20.000
6.800	10629.380	23.570	607.333	806.641	20.000
6.820	10640.700	41.028	522.167	924.105	19.000
6.840	10650.400	59.945	464.250	949.953	20.000
6.860	10659.420	78.740	436.333	943.235	21.000
6.880	10667.720	97.273	376.583	866.908	19.000
6.900	10674.540	113.273	327.833	767.422	21.000
6.920	10680.980	128.151	305.500	708.370	19.000
6.940	10686.820	141.587	289.750	640.105	21.000
6.960	10692.640	153.779	286.333	577.022	20.000
6.980	10698.280	164.665	280.917	511.700	20.000
7.000	10703.940	174.293	286.583	456.423	20.000
7.020	10709.800	182.891	300.750	395.451	20.000
7.040	10716.020	190.047	323.167	323.475	20.000
7.060	10722.740	195.790	342.833	247.597	19.000
7.080	10729.900	199.843	397.000	153.228	21.000
7.100	10738.560	201.839	435.500	48.112	20.000
7.120	10747.300	201.670	471.500	-74.471	21.000
7.140	10757.420	198.860	512.167	-196.990	20.000
7.160	10767.620	193.886	520.667	-302.106	20.000
7.180	10778.200	186.838	524.750	-400.377	19.000
7.200	10788.580	177.993	520.500	-476.512	20.000
