%Time (s)	Wheel Position (deg)	Slide position (mm)	Wheel Speed (deg/s)	Slide Speed (mm/s)	Actual sample time (ms)	%2/8/20183:08 PM
0.000	5444.900	109.403	671.417	-922.314	19.000
0.020	5458.220	90.286	684.333	-979.255	20.000
0.040	5472.380	70.387	715.500	-1015.339	21.000
0.060	5486.860	49.980	746.333	-1007.533	20.000
0.080	5502.300	30.633	791.250	-915.596	20.000
0.100	5518.460	14.065	826.250	-718.031	20.000
0.120	5535.280	2.810	855.333	-375.298	20.000
0.140	5552.400	-0.276	834.583	78.310	19.000
0.160	5568.540	5.973	804.250	538.955	21.000
0.180	5584.240	20.575	713.167	882.007	19.000
0.200	5596.980	40.276	606.000	1066.585	21.000
0.220	5608.760	62.463	558.917	1134.467	19.000
0.240	5619.260	85.097	485.417	1119.495	20.000
0.260	5628.340	106.870	442.500	1047.520	20.000
0.280	5637.120	126.846	426.750	954.687	21.000
0.300	5645.440	145.057	410.500	867.228	20.000
0.320	5653.640	161.471	411.083	770.365	20.000
0.340	5661.980	175.736	424.917	652.197	20.000
0.360	5670.780	187.390	464.833	508.117	21.000
0.380	5680.580	195.882	506.750	335.375	20.000
0.400	5690.880	200.688	509.917	143.568	19.000
0.420	5701.160	201.624	552.333	-46.896	20.000
0.440	5713.040	198.876	608.417	-228.787	20.000
0.460	5725.300	192.642	621.833	-383.423	20.000
0.480	5737.980	183.736	661.333	-506.262	21.000
0.500	5751.440	172.527	634.250	-609.331	18.000
0.520	5763.440	159.460	626.250	-691.543	21.000
0.540	5776.760	144.673	674.583	-827.754	20.000
0.560	5790.240	126.877	679.250	-855.136	20.000
0.580	5803.940	110.524	690.417	-875.162	20.000
0.600	5817.860	91.499	701.583	-979.191	20.000
0.620	5832.020	71.692	713.167	-1014.315	20.000
0.640	5846.500	51.224	748.250	-1012.076	20.000
0.660	5861.900	31.754	768.583	-925.961	20.000
0.680	5877.320	14.894	807.500	-733.961	20.000
0.700	5894.120	3.286	829.333	-398.778	19.000
0.720	5910.460	-0.369	857.167	50.543	21.000
0.740	5927.980	5.359	809.583	509.589	19.000
0.760	5942.480	19.347	694.333	857.888	20.000
0.780	5955.980	38.710	634.750	1049.759	21.000
0.800	5967.820	60.544	558.583	1120.135	20.000
0.820	5978.360	82.993	487.083	1115.529	19.000
0.840	5987.460	104.781	439.000	1052.126	20.000
0.860	5996.200	124.881	445.250	958.974	22.000
0.880	6005.180	143.138	428.500	871.771	19.000
0.900	6013.260	159.690	391.167	775.227	21.000
0.920	6021.100	174.032	407.000	660.962	20.000
0.940	6029.680	185.978	443.583	523.856	20.000
0.960	6038.860	194.807	478.500	357.640	20.000
0.980	6048.880	200.166	525.333	172.230	20.000
1.000	6059.860	201.701	572.167	-9.725	20.000
1.020	6071.600	199.797	587.500	-189.824	20.000
1.040	6083.300	194.193	591.500	-359.559	19.000
1.060	6095.400	185.655	625.667	-487.516	20.000
1.080	6108.300	174.861	653.500	-589.498	20.000
1.100	6121.440	162.147	662.500	-682.714	20.000
1.120	6134.780	147.606	672.167	-768.446	20.000
1.140	6148.240	131.468	662.083	-845.028	20.000
1.160	6161.380	113.856	677.583	-914.380	20.000
1.180	6175.340	94.954	683.750	-975.352	18.000
1.200	6188.960	74.947	736.083	-1023.848	23.000
1.220	6204.780	54.279	790.833	-1032.933	20.000
1.240	6220.240	34.180	770.417	-957.054	19.000
1.260	6235.780	16.721	791.250	-772.348	20.000
1.280	6252.060	4.177	845.667	-446.826	20.000
1.300	6269.440	-0.384	876.083	7.038	20.000
1.320	6286.560	4.576	805.583	480.542	19.000
1.340	6301.520	18.226	715.917	853.217	20.000
1.360	6315.360	37.727	667.833	1067.673	21.000
1.380	6328.020	60.053	570.750	1145.279	19.000
1.400	6338.280	82.947	490.167	1136.194	21.000
1.420	6347.900	105.119	461.250	1070.616	20.000
1.440	6356.760	125.572	429.250	980.214	20.000
1.460	6365.160	144.105	413.583	842.149	20.000
1.480	6373.340	159.583	399.000	777.275	19.000
1.500	6381.280	175.091	411.917	697.110	21.000
1.520	6389.960	186.914	447.083	508.309	20.000
1.540	6399.260	195.452	500.583	341.197	21.000
1.560	6409.880	200.473	531.500	155.596	19.000
1.580	6420.500	201.670	558.833	-29.494	20.000
1.600	6432.320	199.321	609.667	-211.897	20.000
1.620	6444.660	193.317	611.833	-373.250	20.000
1.640	6456.840	184.504	627.500	-524.815	20.000
1.660	6469.820	172.711	656.333	-603.509	20.000
1.680	6483.000	160.427	667.583	-674.269	20.000
1.700	6496.420	145.548	655.750	-790.390	19.000
1.720	6509.420	129.027	686.583	-859.679	21.000
1.740	6523.800	111.200	695.667	-928.136	19.000
1.760	6537.260	91.960	709.167	-989.235	22.000
1.780	6552.180	71.769	724.833	-1032.741	19.000
1.800	6566.260	50.993	734.667	-1024.871	20.000
1.820	6581.840	31.324	802.000	-933.702	20.000
1.840	6598.220	14.372	840.750	-734.409	20.000
1.860	6615.380	2.887	869.167	-382.527	20.000
1.880	6632.800	-0.246	874.083	81.509	21.000
1.900	6649.880	6.188	794.083	554.885	19.000
1.920	6664.440	21.220	697.083	906.831	20.000
1.940	6677.920	41.443	635.583	1092.817	20.000
1.960	6689.820	64.153	560.500	1163.321	20.000
1.980	6700.380	87.369	490.250	1141.504	20.000
2.000	6709.600	109.434	449.083	1062.107	20.000
2.020	6718.500	129.733	434.000	968.826	20.000
2.040	6727.000	148.159	420.417	874.906	20.000
2.060	6735.420	164.650	424.167	770.237	20.000
2.080	6744.060	178.792	443.667	636.714	20.000
2.100	6753.180	189.939	460.000	476.064	20.000
2.120	6762.600	197.663	501.667	287.135	20.000
2.140	6773.340	201.363	561.583	89.954	20.000
2.160	6784.940	201.271	596.333	-106.140	20.000
2.180	6797.120	197.218	620.667	-288.287	20.000
2.200	6809.720	189.970	640.833	-426.736	20.000
2.220	6822.620	180.143	633.500	-583.804	20.000
2.240	6835.140	167.091	643.083	-647.654	20.000
2.260	6848.440	154.301	670.000	-703.124	20.000
2.280	6861.940	138.670	701.667	-826.474	20.000
2.300	6876.220	121.518	673.333	-888.021	19.000
2.320	6888.980	103.185	665.833	-950.848	20.000
2.340	6903.160	83.546	721.167	-1006.765	21.000
2.360	6917.660	63.093	732.250	-1040.162	19.000
2.380	6932.580	42.410	769.250	-999.856	21.000
2.400	6948.600	23.739	845.000	-863.198	21.000
2.420	6966.060	8.675	855.667	-607.348	19.000
2.440	6982.700	0.384	849.833	-194.047	20.000
2.460	7000.020	1.336	851.833	287.903	21.000
2.480	7016.320	11.593	766.083	720.654	20.000
2.500	7030.580	29.251	672.750	1004.142	20.000
2.520	7043.320	50.748	599.833	1124.742	20.000
2.540	7054.560	73.580	517.667	1151.357	19.000
2.560	7064.200	96.290	467.917	1098.639	20.000
2.580	7073.380	117.265	430.667	1006.318	20.000
2.600	7081.580	136.551	419.083	924.105	21.000
2.620	7090.240	154.147	426.583	828.201	19.000
2.640	7098.500	169.563	396.083	714.832	19.000
2.660	7106.360	182.600	417.667	581.117	20.000
2.680	7115.480	192.611	490.083	414.773	21.000
2.700	7125.840	199.060	532.833	227.891	21.000
2.720	7136.720	201.701	563.833	39.539	20.000
2.740	7148.400	200.626	601.833	-154.700	20.000
2.760	7160.640	195.651	605.500	-325.650	18.000
2.780	7172.760	187.790	646.583	-467.171	22.000
2.800	7186.280	177.164	637.750	-576.830	18.000
2.820	7198.340	164.850	646.083	-664.800	21.000
2.840	7212.220	150.570	676.417	-758.721	20.000
2.860	7225.220	134.585	661.917	-837.350	20.000
2.880	7238.980	117.142	718.083	-906.255	20.000
2.900	7253.560	98.394	685.083	-967.419	19.000
2.920	7266.600	78.540	698.417	-1016.682	21.000
2.940	7281.760	57.949	764.167	-1036.387	20.000
2.960	7296.960	37.589	778.833	-978.615	21.000
2.980	7313.040	19.516	829.083	-812.335	20.000
3.000	7329.920	5.942	836.333	-514.707	19.000
3.020	7346.460	-0.261	846.167	-82.724	20.000
3.040	7363.600	2.902	833.583	394.875	20.000
3.060	7379.400	15.048	745.583	792.885	20.000
3.080	7393.380	33.642	659.250	1029.862	21.000
3.100	7405.760	55.370	566.333	1132.355	19.000
3.120	7416.260	78.310	516.667	1142.592	21.000
3.140	7426.520	100.620	482.583	1083.220	20.000
3.160	7435.460	121.426	419.333	993.842	19.000
3.180	7443.540	140.328	404.000	901.521	20.000
3.200	7451.780	157.448	415.417	805.937	20.000
3.220	7460.120	172.435	411.917	689.176	20.000
3.240	7468.400	184.857	436.250	548.296	20.000
3.260	7477.640	194.193	467.417	380.288	19.000
3.280	7487.240	199.920	527.833	185.794	21.000
3.300	7498.660	201.670	569.417	4.478	20.000
3.320	7509.880	200.089	583.583	-182.659	19.000
3.340	7522.100	194.469	625.833	-355.656	20.000
3.360	7534.700	186.147	619.167	-477.791	19.000
3.380	7547.020	175.490	651.167	-582.460	21.000
3.400	7560.640	162.930	660.333	-675.741	20.000
3.420	7573.340	148.527	646.417	-758.849	20.000
3.440	7586.780	132.620	698.500	-836.263	22.000
3.460	7601.000	115.131	687.250	-903.824	19.000
3.480	7614.280	96.459	679.833	-979.703	20.000
3.500	7628.400	76.160	713.500	-1019.177	20.000
3.520	7642.820	55.984	740.083	-1015.147	20.000
3.540	7658.080	35.930	785.250	-961.789	20.000
3.560	7674.100	18.257	798.000	-790.838	19.000
3.580	7690.180	5.175	857.083	-481.950	22.000
3.600	7708.100	-0.261	865.250	-47.152	19.000
3.620	7724.380	3.455	799.333	413.749	20.000
3.640	7740.040	15.815	741.167	798.963	20.000
3.660	7753.860	34.487	650.417	1033.380	20.000
3.680	7766.060	56.245	560.583	1124.550	19.000
3.700	7776.440	78.878	497.917	1130.116	20.000
3.720	7786.140	101.050	463.083	1076.630	20.000
3.740	7795.000	121.702	429.000	986.292	21.000
3.760	7803.400	140.451	410.583	892.948	20.000
3.780	7811.560	157.372	419.000	793.397	21.000
3.800	7820.080	172.097	404.250	680.987	19.000
3.820	7827.880	184.458	415.333	544.265	20.000
3.840	7836.940	193.701	471.417	380.608	20.000
3.860	7846.760	199.582	532.000	201.404	20.000
3.880	7857.980	201.747	543.500	23.544	19.000
3.900	7868.520	200.488	560.417	-164.233	20.000
3.920	7880.580	195.298	618.583	-333.136	21.000
3.940	7893.060	187.406	632.250	-459.366	20.000
3.960	7905.840	177.041	645.333	-570.752	20.000
3.980	7918.860	164.681	656.750	-665.632	20.000
4.000	7932.100	150.477	666.500	-752.195	20.000
4.020	7945.520	134.647	678.667	-831.144	20.000
4.040	7959.160	117.296	670.833	-899.410	20.000
4.060	7972.460	98.701	680.917	-965.819	19.000
4.080	7986.620	78.770	741.917	-1017.514	21.000
4.100	8001.780	58.241	717.750	-1035.812	19.000
4.120	8015.660	37.819	765.667	-982.198	21.000
4.140	8032.520	19.685	835.500	-815.214	20.000
4.160	8048.780	6.050	837.917	-519.889	20.000
4.180	8066.220	-0.261	900.333	-82.596	20.000
4.200	8084.160	3.025	836.250	401.593	20.000
4.220	8099.480	15.309	752.750	802.930	21.000
4.240	8114.160	34.226	650.583	1058.140	18.000
4.260	8125.560	56.644	550.500	1154.556	20.000
4.280	8136.660	79.753	553.750	1154.684	22.000
4.300	8147.360	102.432	473.417	1096.975	18.000
4.320	8155.660	123.407	402.417	1005.742	20.000
4.340	8163.940	142.600	427.417	909.966	21.000
4.360	8172.720	159.721	433.417	801.267	20.000
4.380	8181.260	174.554	433.500	679.707	20.000
4.400	8190.200	186.730	461.917	529.550	20.000
4.420	8199.740	195.544	484.417	347.595	20.000
4.440	8209.700	200.550	532.500	153.228	20.000
4.460	8221.000	201.686	568.750	-37.172	19.000
4.480	8232.480	199.091	615.583	-226.036	20.000
4.500	8245.480	192.795	631.667	-391.228	20.000
4.520	8257.800	183.675	667.417	-517.522	22.000
4.540	8271.960	172.251	660.583	-620.463	18.000
4.560	8284.140	158.938	630.917	-711.825	21.000
4.580	8297.660	143.813	705.583	-800.179	21.000
4.600	8311.980	127.015	694.167	-875.034	19.000
4.620	8325.340	108.912	664.583	-930.759	19.000
4.640	8338.980	89.734	722.500	-1003.183	21.000
4.660	8354.160	68.943	756.250	-1054.237	21.000
4.680	8369.140	48.030	769.917	-1030.437	20.000
4.700	8385.120	28.299	819.667	-924.105	20.000
4.720	8401.880	11.885	864.667	-692.247	20.000
4.740	8419.360	1.566	840.917	-304.474	18.000
4.760	8435.540	0.307	833.333	182.403	20.000
4.780	8452.580	8.752	813.333	652.645	21.000
4.800	8467.640	25.597	707.333	989.747	20.000
4.820	8480.960	47.247	627.750	1148.286	20.000
4.840	8492.820	70.724	557.917	1187.313	20.000
4.860	8503.360	94.187	501.750	1143.168	19.000
4.880	8512.940	116.159	449.250	1056.733	21.000
4.900	8521.500	136.366	425.500	961.661	20.000
4.920	8530.120	154.546	428.417	855.840	20.000
4.940	8538.680	170.485	433.167	733.385	20.000
4.960	8547.560	183.705	459.417	583.100	19.000
4.980	8557.060	193.624	478.500	403.640	20.000
5.000	8566.900	199.720	539.750	201.788	21.000
5.020	8578.560	201.732	581.250	10.940	19.000
5.040	8590.020	200.135	594.000	-189.056	20.000
5.060	8602.520	194.315	655.583	-366.149	22.000
5.080	8616.020	185.763	670.583	-494.618	20.000
5.100	8629.220	174.631	669.167	-614.449	20.000
5.120	8642.680	161.364	645.167	-701.524	19.000
5.140	8655.200	146.593	653.583	-789.303	20.000
5.160	8669.020	129.825	701.333	-873.562	20.000
5.180	8683.080	111.753	709.583	-939.140	20.000
5.200	8697.400	92.298	720.750	-1003.439	20.000
5.220	8711.940	71.769	735.000	-1047.008	20.000
5.240	8726.920	50.778	771.167	-1035.044	20.000
5.260	8742.840	30.879	818.917	-950.272	21.000
5.280	8759.520	13.589	833.000	-740.167	19.000
5.300	8776.200	2.319	863.583	-356.680	20.000
5.320	8793.880	-0.061	865.917	124.886	19.000
5.340	8810.460	7.278	800.500	605.812	20.000
5.360	8825.780	23.293	719.750	934.406	21.000
5.380	8839.280	43.761	648.000	1126.213	21.000
5.400	8851.700	67.546	576.500	1200.236	20.000
5.420	8862.300	91.008	490.833	1148.414	19.000
5.440	8871.580	113.211	451.583	1063.642	20.000
5.460	8880.520	133.464	436.500	969.274	20.000
5.480	8889.080	151.921	422.750	867.932	20.000
5.500	8897.540	168.059	427.333	747.013	20.000
5.520	8906.280	181.663	452.167	606.452	20.000
5.540	8915.560	192.120	453.917	433.326	19.000
5.560	8924.720	198.860	512.083	238.000	21.000
5.580	8936.120	201.640	585.417	46.896	20.000
5.600	8947.860	200.703	603.500	-155.276	20.000
5.620	8960.180	195.605	609.167	-327.506	20.000
5.640	8972.360	187.851	644.417	-457.126	21.000
5.660	8985.920	177.425	676.250	-575.486	20.000
5.680	8999.120	164.972	646.417	-669.279	19.000
5.700	9011.960	150.692	660.667	-761.152	20.000
5.720	9025.540	134.616	668.667	-835.751	20.000
5.740	9038.720	117.250	676.667	-918.987	20.000
5.760	9052.720	98.010	711.667	-974.584	20.000
5.780	9067.000	78.402	699.500	-1006.382	19.000
5.800	9080.980	57.734	745.583	-1065.498	21.000
5.820	9096.920	36.575	811.833	-983.669	20.000
5.840	9113.140	19.117	806.250	-792.629	20.000
5.860	9129.440	5.543	867.083	-508.693	20.000
5.880	9147.640	-0.292	903.000	-58.540	20.000
5.900	9164.820	3.393	793.667	419.187	18.000
5.920	9179.460	15.969	711.583	814.702	21.000
5.940	9193.520	35.024	682.667	1055.133	21.000
5.960	9206.460	57.227	584.583	1144.639	19.000
5.980	9216.980	80.229	502.750	1151.997	21.000
6.000	9226.840	102.893	472.167	1097.615	20.000
6.020	9235.900	123.867	440.500	1001.455	20.000
6.040	9244.500	142.907	410.583	904.656	19.000
6.060	9252.540	159.997	420.583	802.034	21.000
6.080	9261.420	174.815	445.250	668.255	20.000
6.100	9270.320	186.638	459.833	524.112	21.000
6.120	9279.880	195.651	483.417	363.910	19.000
6.140	9289.860	200.903	546.750	146.703	21.000
6.160	9301.720	201.594	609.417	-51.311	19.000
6.180	9313.820	198.968	582.333	-230.898	19.000
6.200	9325.300	192.488	624.167	-393.084	21.000
6.220	9338.740	183.475	654.417	-514.899	20.000
6.240	9351.280	171.990	641.917	-626.157	20.000
6.260	9364.600	158.554	673.583	-715.791	20.000
6.280	9378.120	143.399	679.917	-802.226	20.000
6.300	9391.800	126.539	688.917	-876.313	20.000
6.320	9405.700	108.405	704.833	-941.507	20.000
6.340	9419.900	88.920	698.500	-1004.526	20.000
6.360	9433.760	68.406	712.750	-1041.186	20.000
6.380	9448.640	47.631	771.250	-1026.023	20.000
6.400	9464.560	27.977	815.333	-918.219	20.000
6.420	9481.200	11.731	852.500	-682.586	20.000
6.440	9498.560	1.582	878.833	-300.187	20.000
6.460	9516.040	0.292	851.250	175.685	20.000
6.480	9532.360	8.507	784.083	636.842	20.000
6.500	9547.300	24.967	702.917	966.843	20.000
6.520	9560.460	46.141	618.667	1128.580	20.000
6.540	9572.140	69.327	551.417	1173.621	20.000
6.560	9582.600	92.528	496.250	1134.786	20.000
6.580	9592.080	114.394	455.667	1042.146	20.000
6.600	9600.880	134.324	419.417	989.555	20.000
6.620	9609.020	153.579	409.083	858.207	20.000
6.640	9617.460	168.519	438.583	705.811	21.000
6.660	9626.540	181.986	459.333	599.862	20.000
6.680	9635.780	192.181	467.250	426.097	19.000
6.700	9645.340	198.907	492.500	236.081	19.000
6.720	9655.720	201.624	568.333	49.583	22.000
