%Time (s)	Wheel Position (deg)	Slide position (mm)	Wheel Speed (deg/s)	Slide Speed (mm/s)	Actual sample time (ms)	%2/8/20183:09 PM
0.000	5892.040	8.138	986.167	-688.600	19.000
0.020	5911.320	0.015	1011.667	-74.407	20.000
0.040	5932.320	5.697	1013.250	636.202	20.000
0.060	5951.260	24.522	904.083	1183.858	21.000
0.080	5968.380	51.500	789.083	1483.661	20.000
0.100	5982.820	82.317	663.583	1535.548	19.000
0.120	5995.420	111.983	634.833	1446.937	21.000
0.140	6008.320	139.852	611.833	1328.577	19.000
0.160	6020.020	164.512	602.500	1105.996	21.000
0.180	6032.780	183.690	662.167	831.848	20.000
0.200	6046.500	197.248	712.500	465.060	20.000
0.220	6061.240	202.100	763.417	62.443	19.000
0.240	6076.700	200.181	741.500	-259.433	19.000
0.260	6091.160	192.166	780.833	-516.050	22.000
0.280	6107.900	180.035	810.083	-690.776	18.000
0.300	6123.440	164.788	812.667	-827.050	22.000
0.320	6140.520	146.946	846.417	-985.716	20.000
0.340	6157.080	125.940	836.667	-1021.992	20.000
0.360	6173.880	105.826	804.083	-1114.825	19.000
0.380	6189.520	81.104	821.833	-1277.970	20.000
0.400	6207.060	55.815	892.833	-1229.667	20.000
0.420	6225.280	32.568	974.667	-1105.484	21.000
0.440	6245.680	12.652	983.083	-825.706	18.000
0.460	6264.560	1.121	991.083	-277.667	20.000
0.480	6285.360	2.411	1025.583	417.396	21.000
0.500	6304.860	17.274	917.667	1020.137	19.000
0.520	6321.940	41.704	799.333	1370.035	21.000
0.540	6336.960	70.632	700.917	1493.898	20.000
0.560	6350.320	100.467	670.917	1470.226	22.000
0.580	6363.680	128.842	603.833	1361.910	18.000
0.600	6374.680	154.531	568.167	1198.829	20.000
0.620	6386.920	176.289	633.167	959.805	21.000
0.640	6399.880	192.319	656.667	619.696	19.000
0.660	6413.320	200.795	709.917	233.521	20.000
0.680	6428.280	201.855	765.083	-117.720	20.000
0.700	6443.740	196.527	784.750	-397.690	20.000
0.720	6459.620	186.423	802.917	-601.974	21.000
0.740	6475.700	172.788	788.500	-753.794	19.000
0.760	6491.260	156.420	791.833	-887.574	20.000
0.780	6507.620	137.410	850.250	-1003.950	21.000
0.800	6524.940	116.420	839.250	-1093.776	19.000
0.820	6541.080	93.741	804.250	-1177.396	20.000
0.840	6557.520	69.573	850.917	-1227.171	20.000
0.860	6575.240	45.205	912.500	-1198.701	20.000
0.880	6594.000	22.648	964.833	-1015.531	20.000
0.900	6613.920	6.034	1044.417	-599.542	21.000
0.920	6635.400	-0.061	1065.667	28.342	20.000
0.940	6655.780	7.416	947.083	701.524	19.000
0.960	6673.120	26.902	807.417	1186.865	20.000
0.980	6688.380	53.373	729.167	1425.889	20.000
1.000	6702.420	82.747	667.917	1486.284	20.000
1.020	6715.180	111.967	615.667	1415.972	20.000
1.040	6727.220	138.946	588.917	1288.527	20.000
1.060	6739.020	163.130	611.500	1110.922	21.000
1.080	6751.800	182.799	656.083	839.142	20.000
1.100	6765.060	196.173	647.500	479.263	18.000
1.120	6778.080	201.901	719.667	112.730	21.000
1.140	6793.860	200.918	795.167	-215.352	21.000
1.160	6809.480	193.701	787.417	-479.391	20.000
1.180	6825.420	182.262	806.000	-656.099	20.000
1.200	6841.580	167.706	795.250	-799.539	19.000
1.220	6857.220	150.416	780.083	-924.617	19.000
1.240	6873.020	130.823	808.833	-1034.788	21.000
1.260	6889.720	109.111	865.917	-1136.898	20.000
1.280	6907.460	85.619	881.500	-1190.512	21.000
1.300	6924.920	61.634	883.250	-1240.159	20.000
1.320	6943.060	36.729	942.250	-1185.905	20.000
1.340	6962.540	15.631	980.917	-898.962	19.000
1.360	6982.280	2.211	1023.000	-384.319	21.000
1.380	7003.260	1.244	1041.667	296.860	20.000
1.400	7023.300	13.865	943.167	944.130	20.000
1.420	7040.700	37.619	796.833	1359.479	19.000
1.440	7055.440	66.625	706.667	1512.963	20.000
1.460	7069.140	97.043	637.583	1504.838	19.000
1.480	7081.220	126.140	614.083	1399.401	21.000
1.500	7093.920	152.581	628.583	1236.384	21.000
1.520	7106.300	175.076	617.000	996.593	19.000
1.540	7118.920	191.797	665.083	648.294	20.000
1.560	7133.140	200.688	762.500	246.829	21.000
1.580	7149.020	201.885	776.583	-115.417	20.000
1.600	7164.100	196.542	775.833	-400.761	20.000
1.620	7180.220	186.331	814.667	-610.931	20.000
1.640	7196.540	172.435	820.000	-771.261	20.000
1.660	7213.020	155.652	831.917	-909.518	20.000
1.680	7229.700	136.213	817.167	-1022.952	19.000
1.700	7245.840	114.839	831.083	-1122.694	21.000
1.720	7262.980	91.438	847.583	-1205.675	19.000
1.740	7279.800	66.901	868.333	-1248.796	20.000
1.760	7297.960	42.072	937.583	-1212.264	20.000
1.780	7317.280	19.623	1001.833	-986.356	19.000
1.800	7337.800	4.161	1023.333	-511.252	21.000
1.820	7358.080	0.338	1034.083	155.404	20.000
1.840	7378.760	10.487	977.917	847.139	19.000
1.860	7396.780	32.936	844.917	1321.476	21.000
1.880	7412.700	61.634	747.417	1516.290	20.000
1.900	7426.820	92.359	667.583	1526.655	20.000
1.920	7439.700	121.963	644.333	1431.647	20.000
1.940	7452.560	149.172	597.250	1278.546	19.000
1.960	7463.980	172.542	623.667	1039.842	22.000
1.980	7477.720	190.139	686.000	699.221	19.000
2.000	7491.300	200.135	716.167	294.813	20.000
2.020	7506.480	202.100	777.167	-78.246	20.000
2.040	7522.180	197.479	798.167	-372.419	20.000
2.060	7538.240	187.667	788.917	-595.448	20.000
2.080	7553.820	174.047	794.833	-757.953	20.000
2.100	7570.260	157.556	852.833	-891.668	21.000
2.120	7587.580	138.501	834.000	-1009.517	19.000
2.140	7603.640	117.296	821.167	-1109.323	20.000
2.160	7620.700	94.248	867.583	-1194.990	20.000
2.180	7638.140	69.772	860.583	-1242.078	20.000
2.200	7655.360	45.113	896.250	-1213.160	19.000
2.220	7674.380	22.311	1016.000	-1022.632	22.000
2.240	7695.520	5.712	1032.833	-589.626	19.000
2.260	7715.580	0.000	1048.917	53.102	21.000
2.280	7737.080	8.138	1005.917	754.754	20.000
2.300	7755.120	28.975	825.917	1247.197	19.000
2.320	7770.420	56.368	715.250	1467.283	20.000
2.340	7784.080	86.509	665.417	1519.169	19.000
2.360	7797.100	116.267	612.750	1437.917	20.000
2.380	7808.860	143.568	606.750	1298.059	21.000
2.400	7821.600	167.736	639.917	1096.079	20.000
2.420	7834.460	186.730	664.250	781.433	21.000
2.440	7848.320	198.507	720.000	384.383	19.000
2.460	7863.200	202.192	765.333	7.294	21.000
2.480	7878.720	199.183	765.333	-306.457	19.000
2.500	7893.980	190.385	807.917	-551.559	21.000
2.520	7910.880	177.594	815.250	-718.926	19.000
2.540	7926.580	161.855	824.667	-855.328	21.000
2.560	7943.860	143.491	835.667	-978.359	20.000
2.580	7959.900	122.839	822.000	-1083.028	20.000
2.600	7976.880	100.267	837.750	-1178.036	18.000
2.620	7993.460	75.991	858.417	-1230.818	21.000
2.640	8011.280	51.439	879.167	-1233.057	20.000
2.660	8029.080	27.608	992.250	-1094.352	21.000
2.680	8050.840	9.136	1088.167	-719.438	20.000
2.700	8071.800	0.215	1030.500	-115.609	19.000
2.720	8091.880	4.960	959.667	556.997	20.000
2.740	8110.080	21.942	872.583	1146.750	20.000
2.760	8126.760	49.274	782.917	1481.678	20.000
2.780	8141.420	79.507	693.417	1535.932	21.000
2.800	8154.700	109.879	639.000	1480.206	20.000
2.820	8167.180	138.163	614.167	1345.851	20.000
2.840	8179.480	163.268	622.083	1152.188	20.000
2.860	8192.260	183.613	664.333	856.416	20.000
2.880	8206.040	196.956	700.167	463.140	19.000
2.900	8220.220	202.131	721.417	74.471	20.000
2.920	8235.120	200.258	793.000	-261.992	21.000
2.940	8251.760	192.150	829.500	-519.121	20.000
2.960	8268.040	179.989	819.167	-695.190	20.000
2.980	8284.500	164.573	807.250	-841.189	19.000
3.000	8300.440	146.485	814.833	-967.675	20.000
3.020	8317.220	126.002	847.083	-1072.727	20.000
3.040	8334.240	103.660	861.500	-1169.335	21.000
3.060	8351.600	79.431	857.417	-1236.448	19.000
3.080	8368.720	54.556	884.917	-1263.127	20.000
3.100	8387.280	29.911	966.250	-1134.402	20.000
3.120	8407.300	10.656	1032.500	-769.405	20.000
3.140	8428.340	0.491	1063.667	-188.481	20.000
3.160	8449.400	3.854	1021.750	529.102	21.000
3.180	8468.800	20.729	913.333	1072.279	20.000
3.200	8485.760	45.573	774.000	1440.667	19.000
3.220	8500.020	76.897	683.083	1588.202	20.000
3.240	8513.400	107.438	648.500	1435.869	20.000
3.260	8525.980	134.478	602.833	1366.197	20.000
3.280	8537.800	161.610	607.000	1226.404	20.000
3.300	8550.540	182.385	656.583	876.761	20.000
3.320	8564.200	196.358	729.500	492.506	21.000
3.340	8579.600	202.039	780.500	98.975	20.000
3.360	8595.200	200.642	790.167	-239.919	20.000
3.380	8611.220	192.903	809.000	-507.861	20.000
3.400	8627.520	180.849	825.833	-689.496	20.000
3.420	8644.000	165.587	790.250	-834.535	18.000
3.440	8659.240	147.591	770.833	-965.179	19.000
3.460	8675.320	127.123	851.333	-1072.727	22.000
3.480	8693.080	104.781	881.583	-1171.062	19.000
3.500	8710.400	80.567	875.667	-1220.006	21.000
3.520	8728.300	56.199	913.000	-1254.554	21.000
3.540	8746.920	31.262	940.750	-1159.034	19.000
3.560	8766.120	11.439	1004.667	-800.819	19.000
3.580	8787.180	0.660	1100.667	-214.776	22.000
3.600	8809.260	3.578	1028.417	498.648	19.000
3.620	8827.880	19.915	887.667	1093.968	20.000
3.640	8844.900	45.803	781.500	1437.661	20.000
3.660	8859.260	75.914	688.417	1543.865	20.000
3.680	8872.740	106.532	652.750	1497.608	19.000
3.700	8885.380	135.215	604.250	1367.284	20.000
3.720	8897.200	160.780	606.417	1178.868	20.000
3.740	8909.920	181.755	657.167	893.460	21.000
3.760	8923.520	195.928	705.167	506.582	20.000
3.780	8938.220	201.962	776.333	116.313	21.000
3.800	8954.360	200.857	810.500	-229.299	20.000
3.820	8970.320	193.271	781.417	-498.776	19.000
3.840	8985.800	181.433	791.250	-681.243	20.000
3.860	9002.200	166.278	851.333	-829.737	21.000
3.880	9019.500	148.404	834.917	-955.391	20.000
3.900	9035.600	128.182	824.583	-1063.130	20.000
3.920	9052.620	105.964	840.250	-1162.041	19.000
3.940	9069.260	81.903	858.167	-1231.842	20.000
3.960	9087.120	57.059	908.667	-1254.170	20.000
3.980	9105.640	32.583	963.500	-1151.229	21.000
4.000	9125.580	12.407	1002.583	-827.626	18.000
4.020	9145.700	0.983	1039.000	-260.201	21.000
4.040	9166.980	2.887	1069.000	462.628	20.000
4.060	9187.480	18.871	906.000	1079.445	19.000
4.080	9203.260	44.483	762.250	1432.606	20.000
4.100	9218.500	74.686	725.083	1554.293	21.000
4.120	9232.200	105.580	654.667	1514.627	19.000
4.140	9244.980	134.616	641.417	1381.999	22.000
4.160	9257.980	160.412	642.500	1191.855	20.000
4.180	9270.800	181.663	659.333	902.544	20.000
4.200	9284.560	195.912	715.250	509.845	20.000
4.220	9299.380	202.008	762.583	115.865	20.000
4.240	9314.960	200.811	792.083	-237.296	20.000
4.260	9330.980	193.041	808.500	-505.686	20.000
4.280	9347.260	181.126	825.167	-684.954	21.000
4.300	9363.740	165.894	784.750	-831.017	18.000
4.320	9379.000	148.021	820.417	-959.165	21.000
4.340	9396.560	127.645	856.333	-1069.912	19.000
4.360	9412.920	105.334	812.333	-1166.648	20.000
4.380	9429.580	81.181	886.750	-1235.169	21.000
4.400	9448.200	56.306	909.083	-1254.298	19.000
4.420	9465.980	31.861	935.583	-1148.222	20.000
4.440	9485.940	11.808	1036.583	-815.278	20.000
4.460	9506.960	0.768	1036.750	-234.801	20.000
4.480	9527.260	3.225	1032.917	486.492	21.000
4.500	9547.720	19.547	925.167	1091.665	19.000
4.520	9564.120	45.281	794.250	1428.256	21.000
4.540	9579.800	75.223	729.417	1539.130	20.000
4.560	9593.280	105.856	645.500	1504.518	20.000
4.580	9605.940	134.754	620.833	1376.241	20.000
4.600	9618.320	160.443	629.500	1186.801	20.000
4.620	9631.120	181.617	625.500	902.608	19.000
4.640	9643.640	195.928	679.833	508.565	20.000
4.660	9658.380	202.008	738.917	138.449	19.000
4.680	9673.240	201.517	815.750	-235.569	22.000
4.700	9690.580	193.102	809.333	-527.183	18.000
4.720	9705.460	181.218	766.167	-677.404	21.000
4.740	9721.900	166.139	876.167	-823.467	21.000
4.760	9739.920	148.389	851.750	-953.855	20.000
4.780	9755.980	128.105	840.500	-1066.137	20.000
4.800	9773.680	105.872	862.000	-1160.570	19.000
4.820	9790.260	81.872	826.250	-1229.347	20.000
4.840	9807.280	57.059	911.500	-1251.675	21.000
4.860	9826.480	32.644	932.667	-1149.821	19.000
4.880	9844.680	12.453	973.500	-829.353	20.000
4.900	9865.620	0.983	1069.250	-262.312	20.000
4.920	9886.760	2.810	1030.333	451.688	20.000
4.940	9906.500	18.457	953.167	1064.794	21.000
4.960	9924.440	43.838	786.417	1414.756	19.000
4.980	9938.300	73.657	688.583	1555.445	21.000
5.000	9952.420	104.874	671.583	1510.788	20.000
5.020	9965.080	133.434	623.750	1372.530	20.000
5.040	9977.500	159.460	594.917	1205.355	18.000
5.060	9989.240	180.941	627.750	921.034	21.000
5.080	10002.920	195.651	718.167	526.351	20.000
5.100	10017.780	201.916	766.417	124.758	20.000
5.120	10033.460	200.933	798.333	-228.595	20.000
5.140	10049.620	193.256	815.667	-506.774	20.000
5.160	10066.040	181.233	826.667	-689.112	20.000
5.180	10082.660	165.940	830.417	-839.846	20.000
5.200	10099.380	147.790	865.083	-970.234	21.000
5.220	10117.040	127.276	851.417	-1077.142	20.000
5.240	10133.460	104.781	840.667	-1177.716	20.000
