%Time (s)	Wheel Position (deg)	Slide position (mm)	Wheel Speed (deg/s)	Slide Speed (mm/s)	Actual sample time (ms)	%2/8/20183:10 PM
0.000	7402.180	45.742	936.833	1718.718	20.000
0.020	7419.740	82.471	831.083	1840.661	21.000
0.040	7435.740	117.910	778.083	1753.330	20.000
0.060	7451.220	151.859	784.083	1590.249	19.000
0.080	7467.280	180.051	807.250	1184.178	20.000
0.100	7483.880	197.939	910.250	557.573	21.000
0.120	7503.280	202.346	926.500	-66.026	19.000
0.140	7520.760	196.404	908.833	-491.867	20.000
0.160	7539.960	183.613	967.750	-770.877	20.000
0.180	7559.200	166.124	964.333	-969.786	20.000
0.200	7578.540	145.119	968.500	-1128.133	20.000
0.220	7597.960	121.196	975.250	-1259.353	20.000
0.240	7617.600	94.939	989.333	-1366.772	20.000
0.260	7637.620	66.932	1015.667	-1419.107	20.000
0.280	7658.380	39.032	1067.500	-1354.425	21.000
0.300	7680.440	14.526	1147.500	-1012.843	20.000
0.320	7703.960	0.752	1170.583	-297.244	19.000
0.340	7726.860	3.777	1130.667	615.153	20.000
0.360	7748.800	24.383	1028.917	1358.967	20.000
0.380	7767.800	55.938	883.750	1734.073	20.000
0.400	7784.540	91.883	821.583	1824.346	22.000
0.420	7800.680	127.599	742.083	1725.244	18.000
0.440	7814.660	159.828	731.333	1476.943	19.000
0.460	7830.660	185.440	868.500	1034.660	22.000
0.480	7848.860	200.150	877.167	403.640	19.000
0.500	7865.840	201.855	915.750	-175.365	21.000
0.520	7885.580	194.269	984.500	-556.741	20.000
0.540	7904.640	180.481	928.667	-795.700	19.000
0.560	7922.980	162.777	934.500	-997.297	20.000
0.580	7942.160	140.881	968.000	-1156.411	20.000
0.600	7961.460	116.820	945.333	-1265.878	20.000
0.620	7980.160	90.363	956.750	-1369.651	20.000
0.640	8000.100	62.448	1039.750	-1419.811	21.000
0.660	8021.660	34.625	1096.500	-1316.293	20.000
0.680	8043.920	11.670	1149.833	-916.364	20.000
0.700	8067.560	0.046	1202.333	-170.055	20.000
0.720	8091.340	5.743	1140.917	729.995	20.000
0.740	8112.460	28.023	939.583	1416.995	19.000
0.760	8129.300	60.283	818.917	1752.563	20.000
0.780	8145.740	96.290	792.417	1804.833	20.000
0.800	8161.040	131.268	753.167	1684.553	20.000
0.820	8176.200	162.746	772.667	1443.610	20.000
0.840	8192.220	187.636	834.333	974.008	20.000
0.860	8209.740	200.764	937.083	340.046	21.000
0.880	8229.120	201.655	916.417	-213.880	19.000
0.900	8246.500	193.287	929.083	-584.060	21.000
0.920	8266.360	179.145	961.417	-818.861	19.000
0.940	8284.680	160.857	929.417	-1018.921	20.000
0.960	8303.820	138.746	967.083	-1160.442	20.000
0.980	8323.120	114.639	943.833	-1274.068	19.000
1.000	8341.780	87.906	962.167	-1383.855	20.000
1.020	8361.840	59.915	1021.333	-1392.172	20.000
1.040	8382.660	33.074	1077.917	-1293.453	21.000
1.060	8405.040	10.103	1156.750	-886.742	20.000
1.080	8428.680	-0.154	1200.667	-94.944	20.000
1.100	8452.380	6.910	1124.917	794.613	21.000
1.120	8473.220	30.310	971.083	1460.053	20.000
1.140	8491.380	63.108	853.167	1762.159	20.000
1.160	8507.620	99.023	778.083	1793.061	20.000
1.180	8522.820	133.695	751.083	1664.592	20.000
1.200	8538.000	164.665	780.500	1409.830	20.000
1.220	8554.160	188.742	822.500	930.823	19.000
1.240	8571.020	201.041	890.333	302.298	21.000
1.260	8589.580	201.302	919.750	-237.552	19.000
1.280	8607.680	192.596	925.667	-597.559	20.000
1.300	8626.700	178.193	957.250	-835.367	20.000
1.320	8645.820	159.583	955.917	-1018.857	20.000
1.340	8664.960	137.687	961.917	-1166.904	20.000
1.360	8684.340	113.073	974.583	-1298.187	21.000
1.380	8704.000	86.171	995.500	-1356.024	20.000
1.400	8724.240	59.024	1030.667	-1413.733	20.000
1.420	8745.240	30.740	1064.833	-1309.959	19.000
1.440	8766.900	8.921	1110.833	-820.204	19.000
1.460	8789.720	-0.261	1178.167	-45.297	21.000
1.480	8813.480	7.862	1156.667	872.027	21.000
1.500	8835.120	33.136	971.167	1534.716	19.000
1.520	8852.500	66.809	825.833	1788.263	20.000
1.540	8868.800	102.985	803.500	1793.573	21.000
1.560	8884.720	137.472	775.000	1649.685	20.000
1.580	8900.040	167.982	784.083	1368.244	20.000
1.600	8916.420	190.861	861.833	861.470	21.000
1.620	8934.220	201.716	870.667	228.083	18.000
1.640	8951.320	200.596	898.250	-290.462	20.000
1.660	8970.280	191.122	957.250	-639.017	20.000
1.680	8989.320	175.813	955.000	-867.740	20.000
1.700	9008.480	156.819	959.750	-1039.714	21.000
1.720	9027.720	134.432	962.250	-1185.010	20.000
1.740	9047.140	109.603	1000.083	-1305.033	20.000
1.760	9067.660	82.486	1022.333	-1391.852	20.000
1.780	9087.980	54.464	1039.583	-1409.062	21.000
1.800	9109.080	27.362	1008.333	-1244.829	17.000
1.820	9129.000	6.787	1119.500	-734.985	22.000
1.840	9153.820	-0.169	1239.000	88.930	20.000
1.860	9177.220	10.610	1095.667	961.917	20.000
1.880	9197.480	36.606	946.917	1537.979	20.000
1.900	9215.320	70.126	840.667	1797.476	20.000
1.920	9231.360	106.839	776.750	1805.025	20.000
1.940	9246.500	141.080	714.833	1628.892	19.000
1.960	9260.500	171.038	748.750	1326.530	20.000
1.980	9276.880	192.780	858.083	789.686	20.000
2.000	9294.700	202.070	943.250	157.195	21.000
2.020	9314.160	199.812	944.417	-338.254	19.000
2.040	9332.360	189.571	927.833	-663.457	20.000
2.060	9351.500	173.970	963.167	-882.071	20.000
2.080	9370.740	154.562	963.167	-1071.640	20.000
2.100	9390.040	131.437	971.917	-1206.506	21.000
2.120	9409.520	106.501	955.500	-1314.118	19.000
2.140	9428.480	79.047	979.917	-1408.167	20.000
2.160	9448.940	50.825	1041.750	-1411.621	20.000
2.180	9470.220	23.984	1115.917	-1206.314	21.000
2.200	9493.420	4.791	1163.917	-635.562	19.000
2.220	9516.500	0.292	1173.250	225.332	20.000
2.240	9539.840	13.819	1098.750	1093.008	20.000
2.260	9560.000	42.134	941.083	1637.913	20.000
2.280	9577.720	77.204	834.917	1847.251	20.000
2.300	9593.680	114.271	770.333	1786.023	21.000
2.320	9608.900	147.575	763.750	1577.517	20.000
2.340	9624.560	176.458	813.250	1250.140	20.000
2.360	9641.460	196.097	859.750	654.628	19.000
2.380	9658.980	202.407	913.250	24.056	20.000
2.400	9677.920	198.062	957.833	-423.538	20.000
2.420	9697.060	186.408	961.583	-723.277	20.000
2.440	9716.220	169.748	935.000	-930.951	20.000
2.460	9734.600	149.479	936.500	-1097.487	20.000
2.480	9753.840	126.063	968.583	-1233.889	20.000
2.500	9773.260	100.328	978.000	-1342.972	20.000
2.520	9793.040	72.674	1002.333	-1408.934	20.000
2.540	9813.480	44.683	1045.333	-1380.336	20.000
2.560	9835.040	19.040	1125.000	-1108.555	21.000
2.580	9858.380	2.534	1193.500	-473.569	19.000
2.600	9882.240	1.535	1174.250	405.048	21.000
2.620	9904.640	18.303	1026.917	1211.880	19.000
2.640	9923.300	47.984	884.667	1675.597	20.000
2.660	9940.400	83.269	813.250	1813.470	20.000
2.680	9956.000	119.123	757.750	1748.596	21.000
2.700	9971.060	152.182	760.250	1540.538	20.000
2.720	9986.720	179.621	816.417	1164.600	20.000
2.740	10003.700	197.525	861.417	570.816	19.000
2.760	10021.180	202.361	908.750	-35.508	20.000
2.780	10040.000	197.110	951.333	-460.837	21.000
2.800	10059.020	184.826	956.083	-745.861	20.000
2.820	10078.100	167.844	934.000	-946.498	19.000
2.840	10096.520	147.238	939.833	-1112.330	20.000
2.860	10115.840	123.560	973.417	-1248.412	20.000
2.880	10135.380	97.519	985.750	-1357.559	20.000
2.900	10155.360	69.711	1019.250	-1394.923	20.000
2.920	10176.100	42.257	1032.500	-1381.743	20.000
2.940	10196.980	16.245	1105.583	-1082.580	20.000
2.960	10220.540	1.413	1237.083	-364.357	21.000
2.980	10245.540	2.779	1196.917	532.045	20.000
3.000	10267.680	21.973	1030.417	1310.599	20.000
3.020	10286.840	53.036	897.000	1723.452	20.000
3.040	10303.640	88.920	763.750	1825.754	19.000
3.060	10317.940	124.727	725.333	1736.184	20.000
3.080	10333.180	157.326	776.667	1502.151	20.000
3.100	10349.080	183.598	830.667	1078.933	20.000
3.120	10366.360	199.367	874.000	459.621	19.000
3.140	10384.020	202.116	915.417	-132.755	21.000
3.160	10402.940	195.160	954.833	-529.870	20.000
3.180	10422.020	181.801	953.333	-783.161	19.000
3.200	10441.200	164.020	985.250	-1042.338	22.000
3.220	10461.300	140.957	990.750	-1141.184	20.000
3.240	10480.720	118.570	976.333	-1212.264	20.000
3.260	10500.400	92.083	968.333	-1383.407	19.000
3.280	10519.680	63.968	997.167	-1421.858	21.000
3.300	10540.580	36.161	1079.500	-1334.847	20.000
3.320	10562.840	12.437	1159.417	-954.623	20.000
3.340	10586.600	0.200	1177.000	-199.613	19.000
3.360	10609.580	5.390	1148.333	716.879	20.000
3.380	10632.020	27.685	1031.833	1427.744	21.000
3.400	10650.600	60.268	868.750	1768.877	20.000
3.420	10667.120	96.567	771.250	1822.555	20.000
3.440	10681.880	131.913	742.917	1696.773	20.000
3.460	10697.160	163.437	761.917	1434.909	19.000
3.480	10712.620	188.005	825.167	959.613	20.000
3.500	10730.180	200.918	885.083	325.842	20.000
3.520	10748.000	201.455	947.250	-229.427	21.000
3.540	10767.780	192.841	956.500	-596.343	19.000
3.560	10786.080	178.454	930.750	-830.121	20.000
3.580	10805.260	160.028	962.583	-1007.789	20.000
3.600	10824.460	138.178	962.583	-1202.284	20.000
3.620	10843.800	112.505	971.250	-1289.934	20.000
3.640	10863.380	86.816	990.750	-1347.259	21.000
3.660	10883.520	58.717	1022.083	-1423.073	20.000
3.680	10904.440	31.216	1088.833	-1286.415	20.000
3.700	10926.980	9.244	1134.833	-836.711	19.000
3.720	10949.740	-0.230	1174.333	-47.664	20.000
3.740	10973.560	7.954	1157.000	850.082	21.000
3.760	10995.240	32.337	992.417	1496.457	20.000
3.780	11013.300	65.765	847.667	1822.683	20.000
3.800	11029.480	103.108	757.833	1801.378	20.000
3.820	11044.040	136.673	737.000	1619.551	20.000
3.840	11059.280	167.276	763.333	1381.359	19.000
3.860	11074.820	190.415	828.417	874.458	20.000
3.880	11092.520	201.517	918.917	243.182	20.000
3.900	11111.140	200.734	919.667	-277.667	20.000
3.920	11129.300	191.459	927.750	-622.319	20.000
3.940	11148.340	176.596	957.417	-851.234	20.000
3.960	11167.460	157.771	957.083	-1027.750	20.000
3.980	11186.640	135.522	962.500	-1220.837	20.000
4.000	11206.000	109.526	977.333	-1303.306	20.000
4.020	11225.660	83.638	971.333	-1354.489	20.000
4.040	11245.060	55.492	1000.000	-1418.083	20.000
4.060	11266.000	28.330	1088.750	-1253.530	20.000
4.080	11288.720	7.401	1204.333	-762.560	21.000
4.100	11313.640	-0.246	1233.000	51.951	19.000
4.120	11337.140	9.904	1099.250	944.003	21.000
4.140	11357.440	35.884	953.750	1555.573	20.000
4.160	11375.300	69.880	802.167	1800.291	19.000
4.180	11390.020	106.225	735.500	1794.788	19.000
4.200	11405.260	140.558	761.917	1632.603	21.000
4.220	11420.600	170.562	789.917	1340.541	20.000
4.240	11437.080	192.749	864.583	801.522	21.000
4.260	11455.000	202.024	898.583	158.027	19.000
4.280	11472.960	199.889	920.917	-331.536	19.000
4.300	11491.980	189.755	984.417	-660.194	22.000
4.320	11511.900	174.170	956.833	-884.950	19.000
4.340	11530.260	154.715	934.083	-1060.827	20.000
4.360	11549.560	131.959	973.417	-1205.930	21.000
4.380	11569.080	106.670	979.667	-1326.018	19.000
4.400	11588.840	79.231	1005.250	-1402.728	21.000
4.420	11609.380	51.132	1046.000	-1404.712	20.000
4.440	11630.700	24.307	1084.083	-1228.643	19.000
4.460	11652.920	4.407	1164.083	-644.199	20.000
4.480	11676.980	0.307	1203.750	236.720	20.000
4.500	11700.240	13.743	1091.167	1092.177	21.000
4.520	11720.360	42.180	940.083	1644.759	20.000
4.540	11738.080	77.266	838.500	1827.801	20.000
4.560	11754.080	113.749	755.583	1785.512	19.000
4.580	11768.760	147.621	748.750	1596.647	20.000
4.600	11784.460	176.504	815.083	1247.069	21.000
4.620	11801.420	196.112	884.583	652.772	20.000
4.640	11819.740	202.377	936.833	21.241	20.000
4.660	11838.700	197.939	958.750	-433.262	20.000
4.680	11857.860	186.024	936.417	-732.170	19.000
4.700	11876.280	169.272	941.333	-938.884	20.000
4.720	11895.640	148.758	971.250	-1109.451	21.000
4.740	11915.020	125.142	978.167	-1241.950	20.000
4.760	11934.680	99.254	965.167	-1354.552	19.000
4.780	11953.840	71.308	990.583	-1422.178	20.000
4.800	11974.560	43.178	1060.917	-1375.473	20.000
4.820	11996.320	17.858	1135.833	-1093.200	20.000
4.840	12019.900	1.766	1205.417	-423.154	20.000
4.860	12043.960	2.380	1176.333	497.241	21.000
4.880	12066.380	20.913	1050.333	1286.671	20.000
4.900	12085.840	51.700	908.167	1715.711	20.000
4.920	12102.860	87.523	788.667	1828.569	19.000
4.940	12117.840	123.484	741.667	1745.653	20.000
4.960	12133.100	156.328	799.250	1524.735	21.000
4.980	12149.760	183.183	830.333	1100.430	20.000
5.000	12166.400	199.183	881.333	472.225	20.000
5.020	12184.960	202.223	923.583	-123.862	19.000
